# time [s], current [A], voltage [V] for drive cycle UDDS
0.0000,0.0304,4.1849
1.0000,0.0304,4.1849
2.0000,0.0304,4.1848
3.0000,0.0304,4.1848
4.0000,0.0304,4.1847
5.0000,0.0304,4.1847
6.0000,0.0304,4.1846
7.0000,0.0304,4.1846
8.0000,0.0304,4.1846
9.0000,0.0304,4.1845
10.0000,0.0304,4.1845
11.0000,0.0304,4.1845
12.0000,0.0304,4.1844
13.0000,0.0304,4.1844
14.0000,0.0304,4.1844
15.0000,0.0304,4.1843
16.0000,0.0304,4.1843
17.0000,0.0304,4.1843
18.0000,0.0304,4.1843
19.0000,0.0304,4.1842
20.0000,0.0304,4.1842
21.0000,0.3823,4.1676
22.0000,1.1017,4.1360
23.0000,1.6650,4.1136
24.0000,2.4526,4.0869
25.0000,3.0432,4.0677
26.0000,3.4383,4.0538
27.0000,0.8765,4.1282
28.0000,1.4520,4.1068
29.0000,4.2781,4.0301
30.0000,2.0705,4.0802
31.0000,1.6470,4.0924
32.0000,0.6425,4.1296
33.0000,-0.1422,4.1656
34.0000,-0.3715,4.1776
35.0000,-0.3620,4.1789
36.0000,-0.2434,4.1751
37.0000,-0.3442,4.1807
38.0000,-2.4679,4.2595
39.0000,-1.5457,4.2363
40.0000,0.3051,4.1597
41.0000,0.6553,4.1433
42.0000,0.6684,4.1419
43.0000,0.9280,4.1302
44.0000,1.7388,4.0996
45.0000,3.1551,4.0573
46.0000,3.5063,4.0451
47.0000,3.1505,4.0498
48.0000,0.8288,4.1198
49.0000,0.1278,4.1509
50.0000,0.3006,4.1439
51.0000,-1.1905,4.2093
52.0000,-2.1659,4.2452
53.0000,-1.5575,4.2302
54.0000,-0.8946,4.2082
55.0000,0.3235,4.1549
56.0000,2.7903,4.0677
57.0000,3.4132,4.0483
58.0000,3.2937,4.0473
59.0000,3.2237,4.0457
60.0000,2.3216,4.0663
61.0000,1.2673,4.0987
62.0000,1.0965,4.1048
63.0000,0.7226,4.1195
64.0000,-0.1533,4.1588
65.0000,0.3322,4.1383
66.0000,0.9002,4.1145
67.0000,0.7161,4.1218
68.0000,0.3356,4.1384
69.0000,0.3339,4.1390
70.0000,0.5221,4.1311
71.0000,1.4833,4.0936
72.0000,1.5151,4.0913
73.0000,0.7457,4.1194
74.0000,-0.0204,4.1533
75.0000,-0.2883,4.1667
76.0000,0.7226,4.1227
77.0000,1.3119,4.0994
78.0000,1.7349,4.0838
79.0000,0.5575,4.1268
80.0000,-0.0199,4.1532
81.0000,1.3512,4.0968
82.0000,1.7852,4.0810
83.0000,2.2523,4.0654
84.0000,2.9827,4.0438
85.0000,2.1935,4.0627
86.0000,1.7884,4.0738
87.0000,1.3548,4.0876
88.0000,1.3703,4.0867
89.0000,1.3858,4.0858
90.0000,0.6860,4.1123
91.0000,0.2129,4.1332
92.0000,0.4448,4.1238
93.0000,0.4427,4.1244
94.0000,0.9091,4.1055
95.0000,1.6235,4.0792
96.0000,-0.1686,4.1510
97.0000,-0.3282,4.1596
98.0000,-0.1673,4.1538
99.0000,1.3394,4.0916
100.0000,1.8217,4.0744
101.0000,1.6176,4.0797
102.0000,1.1622,4.0949
103.0000,0.9310,4.1034
104.0000,0.4554,4.1230
105.0000,-0.3315,4.1586
106.0000,-0.4878,4.1670
107.0000,0.8910,4.1079
108.0000,1.3600,4.0897
109.0000,1.8485,4.0726
110.0000,1.8822,4.0703
111.0000,2.1615,4.0607
112.0000,1.7077,4.0735
113.0000,1.2296,4.0892
114.0000,0.2370,4.1295
115.0000,-0.3395,4.1558
116.0000,-4.4929,4.2808
117.0000,-4.3138,4.2850
118.0000,-3.7936,4.2804
119.0000,-3.2689,4.2738
120.0000,-2.7403,4.2650
121.0000,-2.2084,4.2538
122.0000,-1.6737,4.2396
123.0000,-1.1370,4.2219
124.0000,-0.5987,4.2003
125.0000,-0.0850,4.1765
126.0000,0.0304,4.1703
127.0000,0.0304,4.1695
128.0000,0.0304,4.1689
129.0000,0.0304,4.1684
130.0000,0.0304,4.1679
131.0000,0.0304,4.1676
132.0000,0.0304,4.1673
133.0000,0.0304,4.1670
134.0000,0.0304,4.1668
135.0000,0.0304,4.1666
136.0000,0.0304,4.1664
137.0000,0.0304,4.1662
138.0000,0.0304,4.1661
139.0000,0.0304,4.1660
140.0000,0.0304,4.1659
141.0000,0.0304,4.1658
142.0000,0.0304,4.1658
143.0000,0.0304,4.1657
144.0000,0.0304,4.1657
145.0000,0.0304,4.1656
146.0000,0.0304,4.1656
147.0000,0.0304,4.1656
148.0000,0.0304,4.1656
149.0000,0.0304,4.1655
150.0000,0.0304,4.1655
151.0000,0.0304,4.1655
152.0000,0.0304,4.1655
153.0000,0.0304,4.1655
154.0000,0.0304,4.1655
155.0000,0.0304,4.1655
156.0000,0.0304,4.1655
157.0000,0.0304,4.1655
158.0000,0.0304,4.1656
159.0000,0.0304,4.1656
160.0000,0.0304,4.1656
161.0000,0.0304,4.1656
162.0000,0.0304,4.1656
163.0000,0.0304,4.1657
164.0000,0.4784,4.1450
165.0000,1.3745,4.1080
166.0000,2.2717,4.0774
167.0000,3.1708,4.0509
168.0000,4.0726,4.0269
169.0000,4.9781,4.0041
170.0000,4.3107,4.0127
171.0000,4.2420,4.0110
172.0000,3.4213,4.0262
173.0000,1.7636,4.0691
174.0000,-0.5732,4.1635
175.0000,-0.4256,4.1594
176.0000,-0.1537,4.1490
177.0000,1.1013,4.0965
178.0000,0.9204,4.1032
179.0000,0.9286,4.1028
180.0000,1.3343,4.0877
181.0000,3.4217,4.0276
182.0000,-0.5885,4.1652
183.0000,-2.9730,4.2458
184.0000,-1.2641,4.1988
185.0000,-3.3805,4.2632
186.0000,-1.4032,4.2120
187.0000,-0.2070,4.1647
188.0000,1.5836,4.0903
189.0000,1.0826,4.1065
190.0000,2.4753,4.0604
191.0000,4.0070,4.0206
192.0000,4.6195,4.0043
193.0000,6.1285,3.9729
194.0000,7.7414,3.9411
195.0000,8.1000,3.9295
196.0000,8.0412,3.9256
197.0000,3.9809,3.9937
198.0000,6.8127,3.9399
199.0000,4.6643,3.9753
200.0000,6.1143,3.9472
201.0000,5.6994,3.9521
202.0000,6.6014,3.9346
203.0000,4.3592,3.9734
204.0000,4.0983,3.9781
205.0000,3.8153,3.9834
206.0000,1.2973,4.0511
207.0000,0.5651,4.0796
208.0000,0.9234,4.0672
209.0000,0.5563,4.0825
210.0000,1.2750,4.0567
211.0000,1.2750,4.0573
212.0000,1.2750,4.0578
213.0000,1.2750,4.0584
214.0000,2.0026,4.0354
215.0000,2.0145,4.0350
216.0000,3.1330,4.0051
217.0000,3.5490,3.9946
218.0000,3.6042,3.9923
219.0000,2.8938,4.0081
220.0000,3.3107,3.9976
221.0000,3.7442,3.9870
222.0000,3.0116,4.0030
223.0000,3.4409,3.9924
224.0000,4.2896,3.9733
225.0000,5.5916,3.9470
226.0000,5.3019,3.9502
227.0000,3.7188,3.9806
228.0000,2.9154,3.9988
229.0000,2.0874,4.0209
230.0000,1.2441,4.0479
231.0000,0.3946,4.0808
232.0000,1.6469,4.0367
233.0000,2.4918,4.0124
234.0000,2.9308,4.0010
235.0000,3.3822,3.9897
236.0000,2.5546,4.0095
237.0000,3.4336,3.9877
238.0000,2.5970,4.0075
239.0000,3.0480,3.9960
240.0000,2.1945,4.0179
241.0000,1.7627,4.0308
242.0000,0.8885,4.0609
243.0000,1.7514,4.0323
244.0000,1.7514,4.0325
245.0000,1.7514,4.0327
246.0000,1.7514,4.0329
247.0000,1.7514,4.0330
248.0000,1.3155,4.0473
249.0000,0.4426,4.0804
250.0000,0.4327,4.0817
251.0000,-0.8794,4.1359
252.0000,-0.2977,4.1148
253.0000,-0.0139,4.1042
254.0000,0.7899,4.0724
255.0000,0.3673,4.0896
256.0000,1.1847,4.0589
257.0000,2.8391,4.0095
258.0000,2.0262,4.0306
259.0000,2.0323,4.0301
260.0000,1.6202,4.0423
261.0000,0.3702,4.0882
262.0000,-0.0262,4.1056
263.0000,-0.0322,4.1069
264.0000,-0.0380,4.1081
265.0000,-0.3222,4.1211
266.0000,2.7272,4.0147
267.0000,-0.0465,4.1091
268.0000,1.1104,4.0637
269.0000,0.7064,4.0789
270.0000,0.6995,4.0796
271.0000,1.8847,4.0385
272.0000,2.2901,4.0262
273.0000,2.7052,4.0143
274.0000,3.1323,4.0028
275.0000,3.5738,3.9915
276.0000,3.6188,3.9891
277.0000,3.6641,3.9870
278.0000,5.3994,3.9511
279.0000,3.7926,3.9810
280.0000,2.5475,4.0099
281.0000,3.4250,3.9881
282.0000,1.7234,4.0325
283.0000,0.8600,4.0624
284.0000,-0.5849,4.1214
285.0000,-0.8798,4.1345
286.0000,-1.4534,4.1569
287.0000,-2.0050,4.1766
288.0000,-1.7050,4.1702
289.0000,1.4865,4.0496
290.0000,1.4865,4.0491
291.0000,-0.0586,4.1087
292.0000,-1.6788,4.1715
293.0000,1.0316,4.0674
294.0000,1.7999,4.0411
295.0000,1.0316,4.0665
296.0000,-0.0772,4.1115
297.0000,1.0116,4.0680
298.0000,1.3895,4.0545
299.0000,1.3895,4.0541
300.0000,-0.0830,4.1118
301.0000,-0.3473,4.1239
302.0000,-0.3500,4.1249
303.0000,-1.3653,4.1650
304.0000,-1.8437,4.1825
305.0000,-1.8126,4.1836
306.0000,-2.0148,4.1917
307.0000,-1.9724,4.1925
308.0000,-1.7075,4.1862
309.0000,-1.8882,4.1935
310.0000,-3.0867,4.2283
311.0000,-2.3685,4.2122
312.0000,-2.8514,4.2269
313.0000,-2.0018,4.2056
314.0000,-1.7549,4.1992
315.0000,-1.1898,4.1808
316.0000,-0.9939,4.1740
317.0000,0.4469,4.1119
318.0000,-0.3288,4.1456
319.0000,-1.1074,4.1777
320.0000,-1.8155,4.2028
321.0000,-3.3544,4.2461
322.0000,-3.7144,4.2583
323.0000,-1.2401,4.1922
324.0000,-0.7528,4.1734
325.0000,-0.3227,4.1545
326.0000,-1.1542,4.1887
327.0000,-1.0565,4.1857
328.0000,-2.0254,4.2197
329.0000,-0.8771,4.1811
330.0000,-1.2532,4.1958
331.0000,-1.0066,4.1872
332.0000,-0.4680,4.1650
333.0000,-0.0133,4.1440
334.0000,0.0304,4.1413
335.0000,0.0304,4.1406
336.0000,0.0304,4.1400
337.0000,0.0304,4.1395
338.0000,0.0304,4.1390
339.0000,0.0304,4.1386
340.0000,0.0304,4.1382
341.0000,0.0304,4.1379
342.0000,0.0304,4.1376
343.0000,0.0304,4.1373
344.0000,0.0304,4.1370
345.0000,0.0304,4.1368
346.0000,0.0304,4.1366
347.0000,0.0776,4.1343
348.0000,0.7499,4.1045
349.0000,1.6462,4.0703
350.0000,2.5439,4.0420
351.0000,3.4437,4.0179
352.0000,4.0769,4.0021
353.0000,4.2553,3.9961
354.0000,4.5258,3.9879
355.0000,2.6161,4.0287
356.0000,3.3372,4.0098
357.0000,3.3417,4.0082
358.0000,3.7456,3.9978
359.0000,4.8804,3.9729
360.0000,2.5459,4.0229
361.0000,2.6183,4.0205
362.0000,1.9433,4.0388
363.0000,2.4830,4.0232
364.0000,2.8012,4.0144
365.0000,3.1415,4.0051
366.0000,1.0687,4.0653
367.0000,1.6105,4.0470
368.0000,0.5453,4.0859
369.0000,0.0149,4.1088
370.0000,1.3365,4.0577
371.0000,2.9780,4.0100
372.0000,2.2154,4.0290
373.0000,0.8507,4.0737
374.0000,0.8507,4.0741
375.0000,0.8507,4.0744
376.0000,0.8507,4.0747
377.0000,0.8507,4.0749
378.0000,1.1292,4.0648
379.0000,1.6943,4.0456
380.0000,1.1457,4.0638
381.0000,0.5857,4.0852
382.0000,-0.1669,4.1172
383.0000,-1.1121,4.1560
384.0000,-1.2719,4.1635
385.0000,-0.5289,4.1364
386.0000,-3.1005,4.2195
387.0000,-3.3770,4.2295
388.0000,-4.3765,4.2550
389.0000,-3.1279,4.2313
390.0000,-2.7857,4.2252
391.0000,-2.5347,4.2206
392.0000,-2.3162,4.2165
393.0000,-1.5639,4.1950
394.0000,-1.6575,4.1990
395.0000,-1.1207,4.1813
396.0000,-0.5824,4.1601
397.0000,-0.0742,4.1376
398.0000,0.0304,4.1323
399.0000,0.0304,4.1319
400.0000,0.0304,4.1315
401.0000,0.0304,4.1312
402.0000,0.0304,4.1310
403.0000,0.3133,4.1182
404.0000,1.1844,4.0824
405.0000,2.0813,4.0520
406.0000,2.9799,4.0266
407.0000,3.8810,4.0040
408.0000,4.7856,3.9829
409.0000,5.6946,3.9630
410.0000,5.2363,3.9680
411.0000,1.7063,4.0488
412.0000,4.4486,3.9807
413.0000,3.8734,3.9906
414.0000,2.9184,4.0112
415.0000,0.8982,4.0723
416.0000,0.4364,4.0912
417.0000,-0.0089,4.1107
418.0000,-0.1669,4.1184
419.0000,-0.3204,4.1259
420.0000,-0.7683,4.1451
421.0000,-3.8207,4.2354
422.0000,-3.7461,4.2381
423.0000,-3.2210,4.2300
424.0000,-2.6921,4.2199
425.0000,-2.1599,4.2074
426.0000,-1.6250,4.1925
427.0000,-1.0881,4.1746
428.0000,-0.5497,4.1537
429.0000,-0.0541,4.1322
430.0000,0.0304,4.1282
431.0000,0.0304,4.1281
432.0000,0.0304,4.1280
433.0000,0.0304,4.1279
434.0000,0.0304,4.1278
435.0000,0.0304,4.1277
436.0000,0.0304,4.1277
437.0000,0.0304,4.1277
438.0000,0.0304,4.1277
439.0000,0.0304,4.1277
440.0000,0.0304,4.1277
441.0000,0.0304,4.1277
442.0000,0.0304,4.1277
443.0000,0.0304,4.1277
444.0000,0.0304,4.1277
445.0000,0.0304,4.1278
446.0000,0.0304,4.1278
447.0000,0.0304,4.1278
448.0000,0.4556,4.1092
449.0000,1.3745,4.0732
450.0000,2.2717,4.0442
451.0000,3.1708,4.0194
452.0000,4.0726,3.9970
453.0000,4.9781,3.9764
454.0000,5.8880,3.9572
455.0000,6.8034,3.9387
456.0000,3.5019,3.9978
457.0000,3.4646,3.9978
458.0000,6.2620,3.9422
459.0000,4.4483,3.9726
460.0000,2.2988,4.0215
461.0000,3.9448,3.9816
462.0000,1.6216,4.0403
463.0000,2.1869,4.0237
464.0000,2.2225,4.0224
465.0000,0.5754,4.0778
466.0000,1.1292,4.0578
467.0000,1.1333,4.0579
468.0000,0.2994,4.0906
469.0000,0.0229,4.1031
470.0000,1.6718,4.0418
471.0000,0.8507,4.0701
472.0000,-0.1676,4.1122
473.0000,0.5627,4.0829
474.0000,0.5602,4.0833
475.0000,0.2853,4.0950
476.0000,0.8243,4.0739
477.0000,0.8243,4.0740
478.0000,0.8243,4.0741
479.0000,0.8243,4.0743
480.0000,0.8243,4.0743
481.0000,0.2818,4.0964
482.0000,1.0887,4.0651
483.0000,1.0927,4.0648
484.0000,1.6438,4.0458
485.0000,0.0195,4.1071
486.0000,0.2818,4.0969
487.0000,0.8178,4.0756
488.0000,0.8178,4.0756
489.0000,0.2784,4.0974
490.0000,0.2750,4.0981
491.0000,0.5379,4.0875
492.0000,-1.2533,4.1600
493.0000,-2.0837,4.1884
494.0000,-2.6435,4.2061
495.0000,-2.7900,4.2124
496.0000,-3.1452,4.2238
497.0000,-3.4663,4.2345
498.0000,-2.7220,4.2194
499.0000,-2.9169,4.2265
500.0000,-2.3860,4.2148
501.0000,-1.6347,4.1936
502.0000,-1.3044,4.1831
503.0000,-0.8545,4.1667
504.0000,-0.3383,4.1452
505.0000,0.0098,4.1296
506.0000,0.0304,4.1283
507.0000,0.0304,4.1280
508.0000,0.0304,4.1278
509.0000,0.0304,4.1275
510.0000,0.0304,4.1273
511.0000,0.0880,4.1246
512.0000,0.4876,4.1070
513.0000,0.8022,4.0935
514.0000,0.5981,4.1012
515.0000,1.3176,4.0730
516.0000,0.9579,4.0852
517.0000,0.9065,4.0866
518.0000,1.4385,4.0666
519.0000,2.3578,4.0374
520.0000,2.6141,4.0290
521.0000,2.5478,4.0294
522.0000,2.2113,4.0374
523.0000,2.0568,4.0409
524.0000,1.8477,4.0464
525.0000,2.1004,4.0382
526.0000,2.2006,4.0346
527.0000,1.9315,4.0417
528.0000,1.8103,4.0448
529.0000,1.2840,4.0616
530.0000,0.7226,4.0823
531.0000,0.5321,4.0902
532.0000,0.5321,4.0905
533.0000,0.5321,4.0907
534.0000,0.5321,4.0909
535.0000,0.5321,4.0912
536.0000,1.7063,4.0486
537.0000,0.9449,4.0744
538.0000,0.9531,4.0740
539.0000,-0.1571,4.1196
540.0000,-0.1556,4.1203
541.0000,0.1488,4.1078
542.0000,0.5321,4.0921
543.0000,0.5321,4.0921
544.0000,-0.4155,4.1323
545.0000,-1.2850,4.1667
546.0000,-3.4443,4.2292
547.0000,-2.9169,4.2200
548.0000,-2.3860,4.2087
549.0000,-1.8522,4.1952
550.0000,-1.3161,4.1789
551.0000,-0.7782,4.1595
552.0000,-0.2393,4.1371
553.0000,0.0304,4.1252
554.0000,0.0304,4.1249
555.0000,0.0304,4.1248
556.0000,0.0304,4.1246
557.0000,0.0304,4.1245
558.0000,0.0304,4.1244
559.0000,0.0304,4.1244
560.0000,0.0304,4.1243
561.0000,0.0304,4.1243
562.0000,0.0304,4.1243
563.0000,0.0304,4.1242
564.0000,0.0304,4.1242
565.0000,0.0304,4.1242
566.0000,0.0304,4.1242
567.0000,0.0304,4.1243
568.0000,0.0304,4.1243
569.0000,0.4556,4.1058
570.0000,1.3745,4.0698
571.0000,2.2717,4.0408
572.0000,2.9673,4.0209
573.0000,1.9811,4.0459
574.0000,1.9604,4.0456
575.0000,1.6067,4.0557
576.0000,0.3484,4.1026
577.0000,0.3484,4.1029
578.0000,1.0169,4.0762
579.0000,0.6318,4.0909
580.0000,0.3633,4.1021
581.0000,0.0905,4.1139
582.0000,-0.2046,4.1271
583.0000,0.2171,4.1093
584.0000,-0.0205,4.1198
585.0000,0.8609,4.0833
586.0000,0.4806,4.0983
587.0000,0.2184,4.1094
588.0000,-0.1099,4.1238
589.0000,0.2118,4.1102
590.0000,0.3380,4.1049
591.0000,0.4663,4.0996
592.0000,0.8609,4.0835
593.0000,1.1529,4.0722
594.0000,1.6198,4.0556
595.0000,1.4026,4.0621
596.0000,1.9214,4.0449
597.0000,1.6940,4.0511
598.0000,0.5992,4.0901
599.0000,0.6022,4.0901
600.0000,1.1034,4.0708
601.0000,1.1250,4.0697
602.0000,1.1466,4.0686
603.0000,0.6425,4.0876
604.0000,0.4711,4.0947
605.0000,0.4711,4.0948
606.0000,0.8209,4.0810
607.0000,2.2711,4.0328
608.0000,3.1427,4.0092
609.0000,2.3133,4.0289
610.0000,1.5727,4.0504
611.0000,1.6049,4.0489
612.0000,-0.8650,4.1453
613.0000,-3.9201,4.2339
614.0000,-3.3965,4.2262
615.0000,-2.8688,4.2165
616.0000,-2.3376,4.2050
617.0000,-1.8035,4.1913
618.0000,-1.2672,4.1748
619.0000,-0.7293,4.1553
620.0000,-0.1908,4.1329
621.0000,0.0304,4.1232
622.0000,0.0304,4.1230
623.0000,0.0304,4.1229
624.0000,0.0304,4.1228
625.0000,0.0304,4.1228
626.0000,0.0304,4.1227
627.0000,0.0304,4.1227
628.0000,0.0304,4.1227
629.0000,0.0304,4.1227
630.0000,0.0304,4.1227
631.0000,0.0304,4.1227
632.0000,0.0304,4.1227
633.0000,0.0304,4.1227
634.0000,0.0304,4.1227
635.0000,0.0304,4.1228
636.0000,0.0304,4.1228
637.0000,0.0304,4.1228
638.0000,0.0304,4.1229
639.0000,0.0304,4.1229
640.0000,0.0304,4.1229
641.0000,0.0304,4.1230
642.0000,0.0304,4.1230
643.0000,0.0304,4.1231
644.0000,0.0304,4.1231
645.0000,0.0304,4.1232
646.0000,0.1880,4.1163
647.0000,0.7127,4.0941
648.0000,1.7006,4.0578
649.0000,1.8527,4.0519
650.0000,2.2432,4.0392
651.0000,1.8007,4.0510
652.0000,1.7646,4.0514
653.0000,3.1102,4.0138
654.0000,3.3766,4.0058
655.0000,2.6051,4.0232
656.0000,2.4425,4.0265
657.0000,2.4006,4.0267
658.0000,2.7092,4.0177
659.0000,2.0606,4.0344
660.0000,1.1303,4.0640
661.0000,1.3455,4.0565
662.0000,0.7590,4.0779
663.0000,0.7624,4.0780
664.0000,0.5627,4.0861
665.0000,0.9695,4.0706
666.0000,0.7725,4.0781
667.0000,0.5705,4.0862
668.0000,-0.2981,4.1229
669.0000,-0.2937,4.1235
670.0000,-2.1094,4.1893
671.0000,-2.2958,4.1970
672.0000,-2.7808,4.2123
673.0000,-1.6913,4.1837
674.0000,-1.3327,4.1730
675.0000,-1.8176,4.1902
676.0000,-1.4091,4.1785
677.0000,-0.9990,4.1647
678.0000,-0.4819,4.1446
679.0000,-0.1557,4.1308
680.0000,-0.0639,4.1268
681.0000,0.0304,4.1226
682.0000,0.0304,4.1224
683.0000,0.0304,4.1223
684.0000,0.0304,4.1223
685.0000,0.0304,4.1222
686.0000,0.0304,4.1222
687.0000,0.0304,4.1221
688.0000,0.0304,4.1221
689.0000,0.0304,4.1221
690.0000,0.0304,4.1221
691.0000,0.0304,4.1221
692.0000,0.0304,4.1222
693.0000,0.0304,4.1222
694.0000,0.1084,4.1188
695.0000,0.4152,4.1055
696.0000,0.4240,4.1048
697.0000,1.0072,4.0812
698.0000,1.8005,4.0531
699.0000,1.8702,4.0499
700.0000,2.3537,4.0347
701.0000,1.4766,4.0601
702.0000,2.4627,4.0298
703.0000,0.7208,4.0858
704.0000,0.0848,4.1124
705.0000,0.3380,4.1022
706.0000,2.6237,4.0249
707.0000,1.8225,4.0462
708.0000,1.7653,4.0474
709.0000,2.6702,4.0210
710.0000,2.1505,4.0339
711.0000,0.4711,4.0914
712.0000,-0.1422,4.1178
713.0000,1.5019,4.0542
714.0000,1.5438,4.0523
715.0000,0.8524,4.0763
716.0000,-0.8791,4.1474
717.0000,-0.7270,4.1429
718.0000,-0.9190,4.1514
719.0000,-2.2745,4.1972
720.0000,-2.3887,4.2028
721.0000,-1.9526,4.1924
722.0000,-1.5143,4.1802
723.0000,-1.0081,4.1634
724.0000,-0.3881,4.1391
725.0000,-0.2232,4.1322
726.0000,-0.0607,4.1252
727.0000,-0.0645,4.1254
728.0000,0.0392,4.1209
729.0000,0.4472,4.1033
730.0000,1.3474,4.0681
731.0000,2.0934,4.0434
732.0000,2.6944,4.0255
733.0000,1.8007,4.0492
734.0000,2.6141,4.0252
735.0000,2.9627,4.0150
736.0000,2.6996,4.0203
737.0000,3.4276,4.0015
738.0000,3.2091,4.0050
739.0000,3.0634,4.0072
740.0000,2.4535,4.0216
741.0000,2.5557,4.0181
742.0000,1.8141,4.0384
743.0000,1.6438,4.0434
744.0000,1.2433,4.0565
745.0000,1.4768,4.0486
746.0000,1.2784,4.0552
747.0000,0.6267,4.0793
748.0000,-0.0136,4.1059
749.0000,0.4000,4.0895
750.0000,0.1812,4.0989
751.0000,-0.3105,4.1201
752.0000,-0.5942,4.1326
753.0000,-1.4089,4.1639
754.0000,-2.2354,4.1914
755.0000,-2.0566,4.1885
756.0000,-2.3918,4.2000
757.0000,-2.0978,4.1939
758.0000,-1.1040,4.1629
759.0000,-1.5447,4.1791
760.0000,-1.6384,4.1835
761.0000,-1.2013,4.1698
762.0000,-0.6966,4.1512
763.0000,-0.1219,4.1273
764.0000,0.0567,4.1194
765.0000,-0.0107,4.1221
766.0000,0.0268,4.1204
767.0000,0.3823,4.1050
768.0000,1.2930,4.0691
769.0000,2.1901,4.0397
770.0000,3.0889,4.0148
771.0000,3.4943,4.0035
772.0000,2.5175,4.0255
773.0000,1.6107,4.0510
774.0000,1.9929,4.0386
775.0000,2.2701,4.0299
776.0000,2.5778,4.0207
777.0000,2.5581,4.0202
778.0000,3.8440,3.9888
779.0000,3.5196,3.9944
780.0000,2.6585,4.0139
781.0000,1.6698,4.0413
782.0000,1.2634,4.0546
783.0000,1.9453,4.0327
784.0000,0.6350,4.0774
785.0000,0.6350,4.0778
786.0000,0.4119,4.0870
787.0000,-0.0130,4.1050
788.0000,0.1848,4.0974
789.0000,0.6185,4.0802
790.0000,0.6185,4.0804
791.0000,0.4001,4.0893
792.0000,-0.4600,4.1254
793.0000,0.3865,4.0911
794.0000,0.5969,4.0828
795.0000,0.5969,4.0828
796.0000,0.5969,4.0829
797.0000,0.5969,4.0830
798.0000,0.5969,4.0831
799.0000,0.8099,4.0748
800.0000,1.4595,4.0515
801.0000,1.7025,4.0432
802.0000,4.0161,3.9840
803.0000,3.0236,4.0047
804.0000,3.1295,4.0012
805.0000,3.2362,3.9977
806.0000,0.7547,4.0709
807.0000,2.2988,4.0208
808.0000,1.8181,4.0342
809.0000,1.5776,4.0414
810.0000,0.5306,4.0789
811.0000,0.2651,4.0900
812.0000,0.7858,4.0699
813.0000,0.5234,4.0802
814.0000,0.0095,4.1015
815.0000,-0.3471,4.1168
816.0000,0.5023,4.0826
817.0000,-0.3440,4.1177
818.0000,-0.3412,4.1184
819.0000,0.4773,4.0852
820.0000,-0.0010,4.1051
821.0000,0.4685,4.0861
822.0000,-0.9939,4.1454
823.0000,-0.4902,4.1271
824.0000,0.4343,4.0893
825.0000,0.6630,4.0801
826.0000,0.6630,4.0800
827.0000,0.6630,4.0799
828.0000,-0.0093,4.1075
829.0000,0.4261,4.0898
830.0000,0.6517,4.0807
831.0000,0.1971,4.0992
832.0000,-0.1662,4.1147
833.0000,-0.6201,4.1339
834.0000,-0.3121,4.1221
835.0000,-0.5980,4.1342
836.0000,-1.6930,4.1745
837.0000,-1.9829,4.1851
838.0000,-1.7237,4.1789
839.0000,-1.3793,4.1689
840.0000,-1.0787,4.1592
841.0000,0.3958,4.0992
842.0000,1.7653,4.0485
843.0000,1.6856,4.0498
844.0000,1.2526,4.0634
845.0000,1.4532,4.0559
846.0000,1.4949,4.0538
847.0000,1.5368,4.0518
848.0000,1.9487,4.0383
849.0000,2.4027,4.0245
850.0000,2.5046,4.0208
851.0000,1.7780,4.0406
852.0000,0.5731,4.0827
853.0000,0.9861,4.0670
854.0000,0.9944,4.0666
855.0000,1.0028,4.0662
856.0000,1.8649,4.0372
857.0000,1.2533,4.0565
858.0000,2.1529,4.0281
859.0000,0.8553,4.0700
860.0000,0.8588,4.0700
861.0000,0.8624,4.0699
862.0000,0.4159,4.0873
863.0000,-0.9235,4.1420
864.0000,-0.4586,4.1249
865.0000,-0.3065,4.1193
866.0000,-1.2814,4.1575
867.0000,-0.6956,4.1370
868.0000,-0.2847,4.1211
869.0000,1.0917,4.0658
870.0000,1.1061,4.0648
871.0000,1.3175,4.0570
872.0000,0.9408,4.0700
873.0000,1.5534,4.0485
874.0000,2.0001,4.0341
875.0000,1.8431,4.0381
876.0000,1.2383,4.0572
877.0000,1.9086,4.0353
878.0000,1.9527,4.0334
879.0000,1.0877,4.0611
880.0000,0.4179,4.0867
881.0000,0.4159,4.0871
882.0000,0.4139,4.0873
883.0000,-0.1653,4.1116
884.0000,-0.1644,4.1121
885.0000,0.3962,4.0893
886.0000,0.6103,4.0808
887.0000,-0.1632,4.1127
888.0000,-0.1621,4.1131
889.0000,-0.4466,4.1254
890.0000,1.4022,4.0532
891.0000,1.6373,4.0449
892.0000,1.2383,4.0577
893.0000,1.0364,4.0645
894.0000,0.1789,4.0982
895.0000,1.0364,4.0646
896.0000,0.6103,4.0806
897.0000,0.6103,4.0806
898.0000,-0.0153,4.1063
899.0000,-0.0161,4.1068
900.0000,-0.3057,4.1192
901.0000,-0.0181,4.1078
902.0000,0.3678,4.0920
903.0000,0.5705,4.0838
904.0000,0.5705,4.0837
905.0000,0.1621,4.1005
906.0000,0.3623,4.0924
907.0000,0.5627,4.0843
908.0000,-0.0195,4.1083
909.0000,-0.0200,4.1087
910.0000,0.5473,4.0854
911.0000,1.1448,4.0626
912.0000,0.3550,4.0927
913.0000,-0.0202,4.1085
914.0000,-0.8199,4.1414
915.0000,-1.0450,4.1508
916.0000,-1.2379,4.1588
917.0000,-0.3730,4.1264
918.0000,0.4500,4.0921
919.0000,0.6176,4.0852
920.0000,1.9952,4.0372
921.0000,1.8973,4.0391
922.0000,1.5929,4.0478
923.0000,0.8802,4.0721
924.0000,0.8882,4.0717
925.0000,1.4706,4.0508
926.0000,0.9164,4.0699
927.0000,0.7292,4.0769
928.0000,0.7325,4.0767
929.0000,0.9326,4.0690
930.0000,-0.0207,4.1072
931.0000,0.1488,4.1005
932.0000,0.5321,4.0850
933.0000,0.5321,4.0849
934.0000,-0.0215,4.1079
935.0000,0.1440,4.1013
936.0000,0.1421,4.1016
937.0000,0.5147,4.0864
938.0000,0.8922,4.0716
939.0000,1.4770,4.0507
940.0000,0.5321,4.0848
941.0000,-0.1533,4.1133
942.0000,0.5221,4.0856
943.0000,-0.2809,4.1190
944.0000,1.2617,4.0583
945.0000,1.6707,4.0443
946.0000,1.5151,4.0486
947.0000,-0.2902,4.1180
948.0000,-1.0656,4.1490
949.0000,-2.1015,4.1839
950.0000,-1.8141,4.1771
951.0000,-2.8747,4.2081
952.0000,-2.4505,4.1994
953.0000,-1.9170,4.1859
954.0000,-1.3812,4.1700
955.0000,-0.8435,4.1511
956.0000,-0.3047,4.1295
957.0000,0.0286,4.1152
958.0000,0.0304,4.1149
959.0000,0.0304,4.1148
960.0000,0.1880,4.1079
961.0000,1.0214,4.0741
962.0000,1.9181,4.0434
963.0000,2.8163,4.0177
964.0000,3.7169,3.9950
965.0000,3.2264,4.0042
966.0000,1.8973,4.0379
967.0000,2.4753,4.0210
968.0000,2.1637,4.0286
969.0000,1.9398,4.0344
970.0000,2.2006,4.0264
971.0000,3.2394,3.9992
972.0000,4.0561,3.9801
973.0000,3.0617,4.0009
974.0000,1.8867,4.0315
975.0000,1.2684,4.0510
976.0000,0.8412,4.0663
977.0000,0.6240,4.0749
978.0000,0.6240,4.0751
979.0000,-0.7612,4.1311
980.0000,0.1754,4.0944
981.0000,-0.0166,4.1027
982.0000,-0.1610,4.1092
983.0000,-0.0183,4.1038
984.0000,-0.2981,4.1158
985.0000,-0.0199,4.1049
986.0000,-0.2911,4.1164
987.0000,-1.1984,4.1519
988.0000,-2.1015,4.1821
989.0000,-0.2551,4.1182
990.0000,0.4477,4.0891
991.0000,0.9505,4.0694
992.0000,1.6547,4.0448
993.0000,1.3514,4.0540
994.0000,0.1286,4.1005
995.0000,0.4783,4.0864
996.0000,0.8327,4.0724
997.0000,-0.0234,4.1069
998.0000,0.4759,4.0866
999.0000,0.4759,4.0866
1000.0000,1.9059,4.0362
1001.0000,1.4139,4.0511
1002.0000,1.6353,4.0434
1003.0000,0.9043,4.0681
1004.0000,1.1061,4.0607
1005.0000,1.3175,4.0530
1006.0000,0.7424,4.0736
1007.0000,0.3497,4.0892
1008.0000,-0.2893,4.1158
1009.0000,-0.8047,4.1370
1010.0000,-0.1496,4.1115
1011.0000,-0.2723,4.1169
1012.0000,-0.0233,4.1070
1013.0000,-0.1442,4.1123
1014.0000,-0.2602,4.1175
1015.0000,-0.1397,4.1129
1016.0000,-0.9190,4.1443
1017.0000,-2.7501,4.2021
1018.0000,-2.5472,4.1991
1019.0000,-2.0142,4.1861
1020.0000,-1.4787,4.1706
1021.0000,-0.9414,4.1524
1022.0000,-0.4027,4.1314
1023.0000,0.0098,4.1140
1024.0000,0.0304,4.1130
1025.0000,0.0304,4.1128
1026.0000,0.0304,4.1127
1027.0000,0.0304,4.1126
1028.0000,0.0304,4.1125
1029.0000,0.0304,4.1125
1030.0000,0.0304,4.1124
1031.0000,0.0304,4.1124
1032.0000,0.0304,4.1124
1033.0000,0.0304,4.1123
1034.0000,0.0304,4.1123
1035.0000,0.0304,4.1123
1036.0000,0.0304,4.1123
1037.0000,0.0304,4.1123
1038.0000,0.0304,4.1123
1039.0000,0.0304,4.1123
1040.0000,0.0304,4.1123
1041.0000,0.0304,4.1123
1042.0000,0.0304,4.1123
1043.0000,0.0304,4.1123
1044.0000,0.0304,4.1124
1045.0000,0.0304,4.1124
1046.0000,0.0304,4.1124
1047.0000,0.0304,4.1124
1048.0000,0.0304,4.1124
1049.0000,0.0304,4.1125
1050.0000,0.0304,4.1125
1051.0000,0.0304,4.1125
1052.0000,0.0304,4.1125
1053.0000,0.0880,4.1101
1054.0000,0.6362,4.0873
1055.0000,1.5647,4.0532
1056.0000,2.4622,4.0258
1057.0000,3.3618,4.0022
1058.0000,3.9993,3.9865
1059.0000,2.4115,4.0224
1060.0000,2.6168,4.0162
1061.0000,3.3259,3.9979
1062.0000,2.5350,4.0162
1063.0000,2.3014,4.0218
1064.0000,2.0174,4.0292
1065.0000,2.0866,4.0268
1066.0000,2.3606,4.0187
1067.0000,1.1888,4.0542
1068.0000,1.8358,4.0332
1069.0000,1.6633,4.0382
1070.0000,1.4768,4.0439
1071.0000,-0.0145,4.1000
1072.0000,-0.3105,4.1127
1073.0000,-0.3065,4.1133
1074.0000,0.5836,4.0778
1075.0000,-0.5847,4.1252
1076.0000,-2.0454,4.1762
1077.0000,-2.1462,4.1811
1078.0000,-0.8424,4.1396
1079.0000,-0.6952,4.1346
1080.0000,-2.3830,4.1908
1081.0000,-2.3887,4.1930
1082.0000,-1.7567,4.1764
1083.0000,-0.5699,4.1350
1084.0000,-0.1230,4.1167
1085.0000,-0.1703,4.1187
1086.0000,-0.1080,4.1162
1087.0000,-0.0524,4.1139
1088.0000,-0.0491,4.1137
1089.0000,0.1182,4.1067
1090.0000,0.3195,4.0981
1091.0000,0.3263,4.0976
1092.0000,-0.0016,4.1113
1093.0000,0.1182,4.1063
1094.0000,-0.1322,4.1168
1095.0000,-0.2764,4.1230
1096.0000,-0.5346,4.1340
1097.0000,-0.1093,4.1167
1098.0000,-0.2177,4.1214
1099.0000,-0.1010,4.1166
1100.0000,0.0098,4.1120
1101.0000,0.0310,4.1111
1102.0000,0.0500,4.1103
1103.0000,0.1343,4.1067
1104.0000,0.4762,4.0924
1105.0000,1.4560,4.0556
1106.0000,2.1961,4.0321
1107.0000,2.6914,4.0176
1108.0000,1.5118,4.0504
1109.0000,0.8399,4.0737
1110.0000,2.0712,4.0326
1111.0000,3.1025,4.0047
1112.0000,3.1752,4.0017
1113.0000,2.0008,4.0313
1114.0000,0.7629,4.0723
1115.0000,0.6053,4.0786
1116.0000,0.6084,4.0786
1117.0000,0.9458,4.0659
1118.0000,1.8207,4.0364
1119.0000,1.3514,4.0509
1120.0000,1.9315,4.0323
1121.0000,1.8103,4.0354
1122.0000,1.4770,4.0455
1123.0000,0.3391,4.0871
1124.0000,0.3374,4.0876
1125.0000,0.9123,4.0655
1126.0000,1.3119,4.0513
1127.0000,1.3343,4.0503
1128.0000,0.9531,4.0635
1129.0000,1.3681,4.0489
1130.0000,0.9778,4.0623
1131.0000,1.1938,4.0545
1132.0000,0.7894,4.0690
1133.0000,0.5836,4.0770
1134.0000,0.5836,4.0772
1135.0000,0.3752,4.0856
1136.0000,0.3733,4.0859
1137.0000,0.5784,4.0779
1138.0000,-0.0183,4.1022
1139.0000,0.3659,4.0868
1140.0000,-0.1584,4.1085
1141.0000,-0.2937,4.1145
1142.0000,-0.8199,4.1359
1143.0000,-1.0450,4.1450
1144.0000,-2.0566,4.1791
1145.0000,-1.3474,4.1583
1146.0000,-2.2157,4.1863
1147.0000,-1.0891,4.1519
1148.0000,-1.3734,4.1626
1149.0000,-1.9818,4.1830
1150.0000,-1.4462,4.1675
1151.0000,-0.9087,4.1492
1152.0000,-0.3700,4.1281
1153.0000,0.0182,4.1118
1154.0000,0.0304,4.1111
1155.0000,0.0304,4.1109
1156.0000,0.0304,4.1108
1157.0000,0.0304,4.1107
1158.0000,0.0304,4.1106
1159.0000,0.0304,4.1106
1160.0000,0.0304,4.1105
1161.0000,0.0304,4.1105
1162.0000,0.0304,4.1104
1163.0000,0.0304,4.1104
1164.0000,0.0304,4.1104
1165.0000,0.0304,4.1104
1166.0000,0.0304,4.1104
1167.0000,0.0304,4.1104
1168.0000,0.0304,4.1104
1169.0000,0.2040,4.1031
1170.0000,1.0486,4.0694
1171.0000,1.9453,4.0391
1172.0000,2.8436,4.0137
1173.0000,3.7443,3.9914
1174.0000,4.6483,3.9712
1175.0000,4.2253,3.9777
1176.0000,3.6810,3.9877
1177.0000,1.3826,4.0479
1178.0000,-0.2703,4.1115
1179.0000,-0.2653,4.1120
1180.0000,-2.5088,4.1883
1181.0000,-2.9490,4.2019
1182.0000,-2.4183,4.1906
1183.0000,-1.8846,4.1772
1184.0000,-1.3486,4.1614
1185.0000,-0.8109,4.1428
1186.0000,-0.2720,4.1216
1187.0000,0.0306,4.1090
1188.0000,0.0304,4.1089
1189.0000,0.0304,4.1089
1190.0000,0.0304,4.1089
1191.0000,0.0304,4.1089
1192.0000,0.0304,4.1090
1193.0000,0.0304,4.1090
1194.0000,0.0304,4.1090
1195.0000,0.0304,4.1090
1196.0000,0.0304,4.1091
1197.0000,0.0323,4.1090
1198.0000,0.1303,4.1049
1199.0000,0.4591,4.0913
1200.0000,1.2727,4.0602
1201.0000,2.2445,4.0293
1202.0000,2.0712,4.0331
1203.0000,1.1183,4.0628
1204.0000,0.3659,4.0915
1205.0000,-0.0808,4.1101
1206.0000,0.4568,4.0882
1207.0000,0.5651,4.0838
1208.0000,0.2692,4.0957
1209.0000,1.2159,4.0594
1210.0000,2.0035,4.0337
1211.0000,2.2070,4.0271
1212.0000,2.5551,4.0168
1213.0000,2.0142,4.0309
1214.0000,2.4552,4.0179
1215.0000,1.2587,4.0533
1216.0000,0.9505,4.0641
1217.0000,0.4547,4.0831
1218.0000,-0.0239,4.1028
1219.0000,-0.0239,4.1033
1220.0000,0.9366,4.0656
1221.0000,0.9505,4.0649
1222.0000,0.7937,4.0706
1223.0000,0.2895,4.0904
1224.0000,0.1195,4.0976
1225.0000,0.1179,4.0980
1226.0000,0.4477,4.0848
1227.0000,0.2817,4.0916
1228.0000,-1.1268,4.1476
1229.0000,-0.3393,4.1184
1230.0000,-0.0232,4.1058
1231.0000,0.9968,4.0654
1232.0000,0.7098,4.0759
1233.0000,0.7173,4.0754
1234.0000,-0.2335,4.1139
1235.0000,-1.6945,4.1680
1236.0000,-1.5115,4.1636
1237.0000,-1.6830,4.1703
1238.0000,-1.6606,4.1709
1239.0000,-0.8158,4.1425
1240.0000,-0.6285,4.1356
1241.0000,-0.4406,4.1284
1242.0000,-0.1895,4.1182
1243.0000,-0.1034,4.1147
1244.0000,0.0216,4.1094
1245.0000,0.0304,4.1090
1246.0000,0.0304,4.1089
1247.0000,0.0304,4.1089
1248.0000,0.0304,4.1089
1249.0000,0.0304,4.1089
1250.0000,0.0304,4.1089
1251.0000,0.0304,4.1089
1252.0000,0.0707,4.1072
1253.0000,0.0479,4.1081
1254.0000,0.0479,4.1081
1255.0000,0.0479,4.1081
1256.0000,0.0479,4.1082
1257.0000,0.1132,4.1054
1258.0000,0.3186,4.0968
1259.0000,0.3613,4.0949
1260.0000,0.4559,4.0909
1261.0000,0.6953,4.0811
1262.0000,1.0924,4.0658
1263.0000,1.5758,4.0487
1264.0000,0.6087,4.0828
1265.0000,-0.3774,4.1234
1266.0000,-0.3371,4.1222
1267.0000,-0.2559,4.1193
1268.0000,0.9334,4.0712
1269.0000,1.8833,4.0389
1270.0000,3.1416,4.0046
1271.0000,3.8930,3.9863
1272.0000,3.8830,3.9850
1273.0000,2.7543,4.0096
1274.0000,1.7614,4.0364
1275.0000,1.1358,4.0567
1276.0000,1.8632,4.0330
1277.0000,1.5648,4.0418
1278.0000,1.4202,4.0463
1279.0000,1.2617,4.0514
1280.0000,0.5196,4.0786
1281.0000,-0.2800,4.1112
1282.0000,-0.2752,4.1116
1283.0000,0.4951,4.0809
1284.0000,0.4951,4.0810
1285.0000,0.4951,4.0811
1286.0000,0.4951,4.0812
1287.0000,0.4951,4.0813
1288.0000,1.4139,4.0478
1289.0000,0.6934,4.0732
1290.0000,1.2617,4.0526
1291.0000,0.9002,4.0652
1292.0000,1.1013,4.0579
1293.0000,1.3119,4.0504
1294.0000,0.9367,4.0634
1295.0000,0.7457,4.0704
1296.0000,1.1497,4.0557
1297.0000,0.9613,4.0623
1298.0000,2.2085,4.0224
1299.0000,2.2787,4.0198
1300.0000,1.6894,4.0365
1301.0000,2.1691,4.0220
1302.0000,0.8624,4.0636
1303.0000,0.4159,4.0808
1304.0000,-1.0735,4.1394
1305.0000,-4.2195,4.2244
1306.0000,-3.6985,4.2166
1307.0000,-3.1731,4.2072
1308.0000,-2.6438,4.1963
1309.0000,-2.1113,4.1835
1310.0000,-1.5763,4.1684
1311.0000,-1.0392,4.1508
1312.0000,-0.5007,4.1304
1313.0000,-0.0280,4.1109
1314.0000,0.0304,4.1083
1315.0000,0.0304,4.1081
1316.0000,0.0304,4.1080
1317.0000,0.0304,4.1079
1318.0000,0.0304,4.1078
1319.0000,0.0304,4.1078
1320.0000,0.0304,4.1077
1321.0000,0.0304,4.1077
1322.0000,0.0304,4.1077
1323.0000,0.0304,4.1076
1324.0000,0.0304,4.1076
1325.0000,0.0304,4.1076
1326.0000,0.0304,4.1076
1327.0000,0.0304,4.1076
1328.0000,0.0304,4.1076
1329.0000,0.0304,4.1076
1330.0000,0.0304,4.1077
1331.0000,0.0304,4.1077
1332.0000,0.0304,4.1077
1333.0000,0.0304,4.1077
1334.0000,0.0304,4.1077
1335.0000,0.0304,4.1077
1336.0000,0.0304,4.1078
1337.0000,0.0304,4.1078
1338.0000,0.1198,4.1041
1339.0000,0.8856,4.0733
1340.0000,1.7821,4.0422
1341.0000,2.6801,4.0161
1342.0000,1.9564,4.0349
1343.0000,2.3575,4.0228
1344.0000,2.4115,4.0204
1345.0000,2.3841,4.0203
1346.0000,2.1329,4.0265
1347.0000,1.6352,4.0408
1348.0000,2.0306,4.0285
1349.0000,1.4463,4.0460
1350.0000,0.7976,4.0687
1351.0000,0.9783,4.0620
1352.0000,-0.1417,4.1061
1353.0000,-0.1397,4.1065
1354.0000,-0.2509,4.1115
1355.0000,-0.3555,4.1162
1356.0000,-0.2390,4.1120
1357.0000,-0.1288,4.1079
1358.0000,-0.8332,4.1362
1359.0000,-0.6919,4.1316
1360.0000,-0.6535,4.1308
1361.0000,-0.6148,4.1298
1362.0000,-0.9582,4.1435
1363.0000,-1.8067,4.1729
1364.0000,-1.3678,4.1601
1365.0000,-0.8718,4.1432
1366.0000,-0.4758,4.1281
1367.0000,-0.1207,4.1137
1368.0000,0.0304,4.1074
1369.0000,0.0304,4.1073
